PERMX	PERMY	PERMZ	Dates	Qoil(m3\day)	Qoil(t\day)	Qliq(m3\day)	Qcum_oil(m3)	Qcum_oil(t)	Qcum_wat
12	14.5	1.8	43862.00	403.649139	347.138259	530.881015	14409.42125	12392.10227	18741.60233
12	14.5	1.8	43891.00	314.689122	270.632644	427.810338	23535.40577	20240.44896	31148.10212
12	14.5	1.8	43922.00	263.404497	226.527868	369.473279	31700.94518	27262.81285	42601.77378
12	14.5	1.8	43952.00	231.45306	199.049631	333.785095	38644.53697	33234.30179	52615.32662
12	14.5	1.8	43983.00	212.57027	182.810432	312.613094	45234.21534	38901.42519	62306.33255
12	14.5	1.8	44013.00	202.450019	174.107016	301.075921	51307.71591	44124.63568	71338.61015
12	14.5	1.8	44044.00	197.1303	169.532059	294.735062	57418.75523	49380.12949	80475.39707
12	14.5	1.8	44075.00	194.819535	167.5448	291.639517	63458.1608	54574.01829	89516.22207
12	14.5	1.8	44105.00	194.443881	167.221738	290.634482	69291.47726	59590.67044	98235.25655
12	14.5	1.8	44136.00	195.244385	167.910171	290.864475	75344.05321	64795.88576	107252.0553
12	14.5	1.8	44166.00	196.572532	169.052376	291.680321	81241.22914	69867.45706	116002.4649
12	14.5	1.8	44197.00	198.059055	170.330788	292.661191	87381.05985	75147.71147	125074.9618
12	14.5	1.8	44228.00	199.374516	171.462084	293.484699	93561.66986	80463.03608	134172.9875
12	14.5	1.8	44256.00	200.268807	172.231174	293.941354	99169.19645	85285.50895	142403.3454
12	14.5	1.8	44287.00	200.796136	172.684677	293.992954	105393.8767	90638.73393	151517.127
12	14.5	1.8	44317.00	200.861616	172.740989	293.605413	111419.7251	95820.96363	160325.2894
12	14.5	1.8	44348.00	200.495289	172.425948	292.779513	117635.0791	101166.168	169401.4543
12	14.5	1.8	44378.00	199.800345	171.828296	291.648903	123629.0894	106321.0169	178150.9214
12	14.5	1.8	44409.00	198.797619	170.965952	290.204459	129791.8156	111620.9615	187147.2596
12	14.5	1.8	44440.00	197.58103	169.919686	288.553767	135916.8276	116888.4717	196092.4264
12	14.5	1.8	44470.00	196.267156	168.789754	286.828178	141804.8423	121952.1643	204697.2717
12	14.5	1.8	44501.00	194.821477	167.546471	284.971401	147844.3081	127146.1049	213531.3851
12	14.5	1.8	44531.00	193.383863	166.310122	283.142743	153645.824	132135.4086	222025.6675
12	14.5	1.8	44562.00	191.894644	165.029393	281.257497	159594.5579	137251.3198	230744.6499
12	14.5	1.8	44593.00	190.430467	163.770201	279.412277	165497.9024	142328.196	239406.4304
12	14.5	1.8	44621.00	189.139661	162.660108	277.785163	170793.8129	146882.6791	247184.415
12	14.5	1.8	44652.00	187.761863	161.475203	276.042435	176614.4307	151888.4104	255741.7305
12	14.5	1.8	44682.00	186.482145	160.374645	274.417022	182208.895	156699.6497	263974.2412
12	14.5	1.8	44713.00	185.221312	159.290328	272.806936	187950.7557	161637.6499	272431.2562
12	14.5	1.8	44743.00	184.065859	158.296639	271.321386	193472.7315	166386.5491	280570.8978
12	14.5	1.8	44774.00	182.932841	157.322244	269.855053	199143.6495	171263.5386	288936.4044
12	14.5	1.8	44805.00	181.856445	156.396543	268.453003	204781.1994	176111.8314	297258.4474
12	14.5	1.8	44835.00	180.863374	155.542502	267.151662	210207.1006	180778.1065	305272.9973
12	14.5	1.8	44866.00	179.884144	154.700365	265.860844	215783.5091	185573.8178	313514.6835
12	14.5	1.8	44896.00	178.975733	153.919131	264.657184	221152.7811	190191.3917	321454.399
12	14.5	1.8	44927.00	178.074125	153.143748	263.456764	226673.079	194938.8479	329621.5587
12	14.5	1.8	44958.00	177.206093	152.397239	262.296159	232166.4679	199663.1624	337752.7396
12	14.5	1.8	44986.00	176.448391	151.745616	261.278699	237107.0228	203912.0396	345068.5432
12	14.5	1.8	45017.00	175.637771	151.048483	260.185611	242551.7937	208594.5426	353134.2971
12	14.5	1.8	45047.00	174.87659	150.393867	259.156132	247798.0914	213106.3586	360908.9811
12	14.5	1.8	45078.00	174.111758	149.736113	258.119004	253195.5559	217748.1781	368910.6702
12	14.5	1.8	45108.00	173.389726	149.115164	257.137795	258397.2477	222221.633	376624.804
12	14.5	1.8	45139.00	172.660835	148.488318	256.145348	263749.7336	226824.7709	384565.3099
12	14.5	1.8	45170.00	171.947501	147.87485	255.1725	269080.1061	231408.8913	392475.6574
12	14.5	1.8	45200.00	171.271656	147.293624	254.249183	274218.2558	235827.7	400103.1329
12	14.5	1.8	45231.00	170.588183	146.705837	253.313833	279506.4895	240375.581	407955.8617
12	14.5	1.8	45261.00	169.937771	146.146483	252.423189	284604.6226	244759.9755	415528.5574
12	14.5	1.8	45292.00	169.276869	145.578107	251.517646	289852.2056	249272.8968	423325.6044
12	14.5	1.8	45323.00	168.626846	145.019088	250.62654	295079.6378	253768.4885	431095.0272
12	14.5	1.8	45352.00	168.02815	144.504209	249.805565	299952.4541	257959.1106	438339.3885
12	14.5	1.8	45383.00	167.399148	143.963267	248.942204	305141.8277	262421.9718	446056.5969
12	14.5	1.8	45413.00	166.80062	143.448533	248.119733	310145.8463	266725.4278	453500.1888
12	14.5	1.8	45444.00	166.192406	142.925469	247.283061	315297.8109	271156.1174	461165.9637
12	14.5	1.8	45474.00	165.613351	142.427482	246.485673	320266.2114	275428.9418	468560.5339
12	14.5	1.8	45505.00	165.024984	141.921486	245.674525	325381.9859	279828.5079	476176.4442
12	14.5	1.8	45536.00	164.446562	141.424044	244.876201	330479.8294	284212.6533	483767.6064
12	14.5	1.8	45566.00	163.895997	140.950558	244.115308	335396.7093	288441.17	491091.0656
12	14.5	1.8	45597.00	163.337337	140.47011	243.341746	340460.1667	292795.7434	498634.6598
12	14.5	1.8	45627.00	162.806907	140.013941	242.605744	345344.3739	296996.1616	505912.8321
12	14.5	1.8	45658.00	162.269382	139.551669	241.858406	350374.7248	301322.2633	513410.4427
12.5	17	3.5	43862.00	431.580884	371.15956	570.821593	15477.04031	13310.25466	20203.21606
12.5	17	3.5	43891.00	333.070288	286.440448	457.340678	25136.07864	21617.02763	33466.09573
12.5	17	3.5	43922.00	277.030918	238.24659	393.928422	33724.03709	29002.6719	45677.8768
12.5	17	3.5	43952.00	245.83649	211.419381	358.86289	41099.13177	35345.25333	56443.76348
12.5	17	3.5	43983.00	228.59268	196.589705	339.231281	48185.50485	41439.53417	66959.93319
12.5	17	3.5	44013.00	220.018186	189.21564	329.16219	54786.05045	47116.00338	76834.7989
12.5	17	3.5	44044.00	215.932767	185.702179	323.977234	61479.96622	52872.77095	86878.09315
12.5	17	3.5	44075.00	214.724648	184.663197	321.896097	68136.43031	58597.33007	96856.87214
12.5	17	3.5	44105.00	215.142182	185.022276	321.592444	74590.69578	64147.99837	106504.6455
12.5	17	3.5	44136.00	216.375977	186.08334	322.145667	81298.35107	69916.58192	116491.1612
12.5	17	3.5	44166.00	217.737378	187.254145	322.878924	87830.47239	75534.20626	126177.5289
12.5	17	3.5	44197.00	218.942469	188.290523	323.451417	94617.68894	81371.21249	136204.5228
12.5	17	3.5	44228.00	219.705377	188.946624	323.59592	101428.5556	87228.55782	146235.9963
12.5	17	3.5	44256.00	219.955176	189.161451	323.294663	107587.3005	92525.07845	155288.2469
12.5	17	3.5	44287.00	219.697844	188.940146	322.434098	114397.9337	98382.22299	165283.704
12.5	17	3.5	44317.00	218.994267	188.33507	321.164864	120967.7617	104032.2751	174918.6499
12.5	17	3.5	44348.00	217.874163	187.371781	319.467429	127721.8608	109840.8003	184822.1402
12.5	17	3.5	44378.00	216.516063	186.203814	317.556697	134217.3427	115426.9147	194348.8411
12.5	17	3.5	44409.00	214.914445	184.826423	315.393416	140879.6905	121156.5338	204126.037
12.5	17	3.5	44440.00	213.198233	183.35048	313.128033	147488.8357	126840.3987	213833.006
12.5	17	3.5	44470.00	211.493493	181.884404	310.903471	153833.6405	132296.9308	223160.1101
12.5	17	3.5	44501.00	209.733576	180.370876	308.617738	160335.3813	137888.4279	232727.26
12.5	17	3.5	44531.00	208.067415	178.937976	306.454681	166577.4038	143256.5672	241920.9005
12.5	17	3.5	44562.00	206.407435	177.510395	304.294554	172976.0343	148759.3895	251354.0316
12.5	17	3.5	44593.00	204.821494	176.146485	302.220555	179325.5006	154219.9305	260722.8689
12.5	17	3.5	44621.00	203.455695	174.971897	300.42367	185022.26	159119.1436	269134.7316
12.5	17	3.5	44652.00	202.01936	173.73665	298.521612	191284.8602	164504.9798	278388.9016
12.5	17	3.5	44682.00	200.697628	172.59996	296.759899	197305.789	169682.9786	287291.6986
12.5	17	3.5	44713.00	199.40032	171.484275	295.018287	203487.199	174998.9911	296437.2655
12.5	17	3.5	44743.00	198.204389	170.455775	293.401548	209433.3306	180112.6643	305239.3119
12.5	17	3.5	44774.00	197.026824	169.443069	291.798701	215541.1622	185365.3995	314285.0716
12.5	17	3.5	44805.00	195.903889	168.477344	290.259706	221614.1827	190588.1972	323283.1225
12.5	17	3.5	44835.00	194.861327	167.580741	288.822938	227460.0225	195615.6194	331947.8107
12.5	17	3.5	44866.00	193.826342	166.690655	287.389068	233468.6392	200783.0297	340856.8718
12.5	17	3.5	44896.00	192.861999	165.86132	286.046262	239254.4991	205758.8692	349438.2597
12.5	17	3.5	44927.00	191.903763	165.037236	284.704251	245203.5158	210875.0236	358264.0915
12.5	17	3.5	44958.00	190.97729	164.24047	283.401287	251123.8118	215966.4781	367049.5314
12.5	17	3.5	44986.00	190.163518	163.540625	282.25327	256448.3903	220545.6156	374952.6229
12.5	17	3.5	45017.00	189.28716	162.786958	281.013403	262316.2922	225592.0113	383664.0384
12.5	17	3.5	45047.00	188.459848	162.075469	279.84014	267970.0877	230454.2754	392059.2426
12.5	17	3.5	45078.00	187.627419	161.35958	278.656226	273786.5377	235456.4224	400697.5856
12.5	17	3.5	45108.00	186.839814	160.68224	277.533957	279391.7321	240276.8896	409023.6043
12.5	17	3.5	45139.00	186.042562	159.996603	276.396566	285159.0515	245236.7843	417591.8978
12.5	17	3.5	45170.00	185.261271	159.324693	275.280605	290902.1509	250175.8498	426125.5966
12.5	17	3.5	45200.00	184.51979	158.687019	274.220307	296437.7446	254936.4603	434352.2058
12.5	17	3.5	45231.00	183.768768	158.041141	273.145125	302134.5764	259835.7357	442819.7047
12.5	17	3.5	45261.00	183.05589	157.428065	272.123327	307626.2531	264558.5776	450983.4045
12.5	17	3.5	45292.00	182.333659	156.806947	271.086787	313278.5965	269419.593	459387.0949
12.5	17	3.5	45323.00	181.625527	156.197953	270.069176	318908.9879	274261.7296	467759.2393
12.5	17	3.5	45352.00	180.97522	155.638689	269.133518	324157.2692	278775.2516	475564.1113
12.5	17	3.5	45383.00	180.295293	155.053953	268.153075	329746.4234	283581.9241	483876.8567
12.5	17	3.5	45413.00	179.65061	154.499524	267.221698	335135.9417	288216.9098	491893.5076
12.5	17	3.5	45444.00	178.996694	153.937157	266.27571	340684.8392	292988.9617	500148.0546
12.5	17	3.5	45474.00	178.375182	153.402656	265.375388	346036.0946	297591.0414	508109.3162
12.5	17	3.5	45505.00	177.744737	152.860474	264.460688	351546.1815	302329.7161	516307.5976
12.5	17	3.5	45536.00	177.125895	152.32827	263.561287	357037.0842	307051.8925	524477.9975
12.5	17	3.5	45566.00	176.537684	151.822408	262.704934	362333.2148	311606.5647	532359.1455
12.5	17	3.5	45597.00	175.940955	151.309221	261.834658	367787.3844	316297.1506	540476.0199
12.5	17	3.5	45627.00	175.373604	150.8213	261.005731	373048.5925	320821.7896	548306.1918
12.5	17	3.5	45658.00	174.797801	150.326109	260.162987	378467.3243	325481.8989	556371.2444
13	22	4	43862.00	478.001233	411.08106	635.886646	17208.20484	14799.05616	22543.65062
13	22	4	43891.00	367.908954	316.4017	509.553856	27877.5645	23974.70547	37320.71242
13	22	4	43922.00	308.760522	265.53405	442.532446	37449.1407	32206.261	51039.21825
13	22	4	43952.00	276.672567	237.938407	406.360633	45749.3177	39344.41322	63230.03726
13	22	4	43983.00	260.643914	224.153765	387.837638	53829.27901	46293.17995	75253.00404
13	22	4	44013.00	253.414781	217.936711	378.996738	61431.72242	52831.28128	86622.90619
13	22	4	44044.00	250.521637	215.448608	374.86375	69197.89316	59510.18812	98243.68243
13	22	4	44075.00	250.176865	215.152105	373.48733	76953.376	66179.90336	109821.7896
13	22	4	44105.00	250.956982	215.823005	373.364021	84482.08548	72654.59351	121022.7103
13	22	4	44136.00	252.025285	216.741745	373.548245	92294.86931	79373.58761	132602.7059
13	22	4	44166.00	252.825994	217.430354	373.524428	99879.64912	85896.49824	143808.4387
13	22	4	44197.00	253.078594	217.647591	372.945546	107725.0855	92643.57356	155369.7506
13	22	4	44228.00	252.684669	217.308815	371.736088	115558.3103	99380.14683	166893.5694
13	22	4	44256.00	251.831514	216.575102	370.173539	122609.5927	105444.2497	177258.4284
13	22	4	44287.00	250.391008	215.336267	367.960158	130371.7139	112119.674	188665.1933
13	22	4	44317.00	248.659044	213.846778	365.493533	137831.4852	118535.0773	199629.9993
13	22	4	44348.00	246.646645	212.116114	362.737327	145477.5312	125110.6768	210874.8565
13	22	4	44378.00	244.595928	210.352498	359.984026	152815.4091	131421.2518	221674.3773
13	22	4	44409.00	242.444797	208.502525	357.128352	160331.1978	137884.8301	232745.3562
13	22	4	44440.00	240.316563	206.672244	354.315858	167781.0112	144291.6696	243729.1478
13	22	4	44470.00	238.308929	204.945679	351.66389	174930.2791	150440.04	254279.0644
13	22	4	44501.00	236.310273	203.226834	349.018488	182255.8975	156740.0719	265098.6375
13	22	4	44531.00	234.459891	201.635506	346.559195	189289.6942	162789.137	275495.4134
13	22	4	44562.00	232.636724	200.067582	344.123875	196501.4327	168991.2321	286163.2535
13	22	4	44593.00	230.901497	198.575288	341.794061	203659.3791	175147.066	296758.8694
13	22	4	44621.00	229.405128	197.28841	339.77447	210082.7227	180671.1415	306272.5545
13	22	4	44652.00	227.828879	195.932836	337.634626	217145.4179	186745.0594	316739.2279
13	22	4	44682.00	226.374718	194.682258	335.648575	223936.6595	192585.5271	326808.6852
13	22	4	44713.00	224.939572	193.448032	333.677145	230909.7862	198582.4161	337152.6767
13	22	4	44743.00	223.607847	192.302748	331.838464	237618.0216	204351.4986	347107.8306
13	22	4	44774.00	222.286331	191.166246	330.005008	244508.8979	210277.6522	357337.9858
13	22	4	44805.00	221.016105	190.07385	328.233727	251360.3972	216169.9416	367513.2314
13	22	4	44835.00	219.829865	189.053684	326.572427	257955.2931	221841.5521	377310.4042
13	22	4	44866.00	218.648736	188.037913	324.910295	264733.4039	227670.7274	387382.6233
13	22	4	44896.00	217.546045	187.089598	323.351047	271259.7853	233283.4153	397083.1547
13	22	4	44927.00	216.444296	186.142094	321.786904	277969.5584	239053.8203	407058.5488
13	22	4	44958.00	215.374152	185.221771	320.263328	284646.1572	244795.6952	416986.7119
13	22	4	44986.00	214.431669	184.411235	318.918528	290650.2439	249959.2097	425916.4307
13	22	4	45017.00	213.415252	183.537116	317.465131	297266.1167	255648.8604	435757.8498
13	22	4	45047.00	212.455646	182.711856	316.090482	303639.7861	261130.216	445240.5642
13	22	4	45078.00	211.488144	181.879804	314.702027	310195.9185	266768.4899	454996.3271
13	22	4	45108.00	210.573367	181.093096	313.3869	316513.1195	272201.2828	464397.9341
13	22	4	45139.00	209.649814	180.29884	312.05672	323012.2638	277790.5468	474071.6924
13	22	4	45170.00	208.747175	179.52257	310.754253	329483.4262	283355.7465	483705.0743
13	22	4	45200.00	207.896173	178.790709	309.5225	335720.3114	288719.4678	492990.7493
13	22	4	45231.00	207.035112	178.050197	308.274371	342138.3998	294239.0239	502547.2548
13	22	4	45261.00	206.218687	177.348072	307.089088	348324.9605	299559.466	511759.9274
13	22	4	45292.00	205.392861	176.63786	305.887971	354692.1391	305035.2397	521242.4545
13	22	4	45323.00	204.584674	175.942819	304.710344	361034.264	310489.4671	530688.4752
13	22	4	45352.00	203.844055	175.305887	303.629246	366945.7416	315573.3378	539493.7233
13	22	4	45383.00	203.069375	174.639663	302.49607	373240.8922	320987.1673	548871.1015
13	22	4	45413.00	202.335162	174.008238	301.419901	379310.9471	326207.4145	557913.6985
13	22	4	45444.00	201.592318	173.369393	300.32871	385560.3089	331581.8657	567223.8885
13	22	4	45474.00	200.887772	172.763484	299.291565	391586.9421	336764.7702	576202.6355
13	22	4	45505.00	200.176733	172.15199	298.241563	397792.4208	342101.4819	585448.1239
13	22	4	45536.00	199.480648	171.553357	297.211207	403976.3209	347419.636	594661.6713
13	22	4	45566.00	198.819455	170.984732	296.230885	409940.9045	352549.1779	603548.5979
13	22	4	45597.00	198.149239	170.408346	295.23548	416083.5309	357831.8366	612700.8977
13	22	4	45627.00	197.512663	169.86089	294.28847	422008.9108	362927.6633	621529.5519
13	22	4	45658.00	196.868419	169.30684	293.327873	428111.8318	368176.1753	630622.7159
16	17	2	43862.00	470.893754	404.968628	623.968854	16938.93447	14567.48365	22133.7533
16	17	2	43891.00	358.823248	308.587994	495.732272	27344.80867	23516.53545	36509.98917
16	17	2	43922.00	301.111055	258.955506	430.316299	36679.25135	31544.15616	49849.79445
16	17	2	43952.00	269.74359	231.979487	395.028528	44771.55905	38503.54078	61700.65029
16	17	2	43983.00	253.848604	218.309799	376.80693	52640.86578	45271.14457	73381.66512
16	17	2	44013.00	246.933182	212.362537	368.408658	60048.86125	51642.02068	84433.92486
16	17	2	44044.00	244.615013	210.368911	364.944392	67631.92667	58163.45694	95747.201
16	17	2	44075.00	245.028398	210.724422	364.421163	75227.80703	64695.91404	107044.257
16	17	2	44105.00	246.647489	212.11684	365.243394	82627.23168	71059.41925	118001.5589
16	17	2	44136.00	248.543971	213.747815	366.366713	90332.09478	77685.60151	129358.927
16	17	2	44166.00	250.019365	215.016654	367.113008	97832.67573	84136.10113	140372.3172
16	17	2	44197.00	250.838455	215.721071	367.195073	105608.6679	90823.45435	151755.3645
16	17	2	44228.00	250.863686	215.74277	366.507215	113385.4421	97511.48021	163117.0881
16	17	2	44256.00	250.282482	215.242934	365.299949	120393.3516	103538.2824	173345.4867
16	17	2	44287.00	249.03832	214.172954	363.379795	128113.5395	110177.644	184610.2603
16	17	2	44317.00	247.421901	212.782835	361.122112	135536.1965	116561.129	195443.9237
16	17	2	44348.00	245.46156	211.096941	358.512314	143145.5049	123105.1342	206557.8054
16	17	2	44378.00	243.400166	209.324143	355.836855	150447.5099	129384.8585	217232.9111
16	17	2	44409.00	241.195624	207.428236	353.025218	157924.5742	135815.1338	228176.6928
16	17	2	44440.00	238.977281	205.520461	350.214829	165332.8699	142186.2681	239033.3525
16	17	2	44470.00	236.867789	203.706298	347.548123	172438.9036	148297.4571	249459.7962
16	17	2	44501.00	234.762459	201.895715	344.892377	179716.5398	154556.2242	260151.4599
16	17	2	44531.00	232.814931	200.220841	342.42416	186700.9877	160562.8494	270424.1847
16	17	2	44562.00	230.912179	198.584474	339.997952	193859.2653	166718.9681	280964.1212
16	17	2	44593.00	229.12129	197.044309	337.697308	200962.0253	172827.3417	291432.7378
16	17	2	44621.00	227.590585	195.727903	335.716887	207334.5617	178307.723	300832.8106
16	17	2	44652.00	225.99607	194.35662	333.637365	214340.4398	184332.7782	311175.5689
16	17	2	44682.00	224.538893	193.103448	331.722489	221076.6066	190125.8817	321127.2436
16	17	2	44713.00	223.116425	191.880126	329.83981	227993.2158	196074.1656	331352.2777
16	17	2	44743.00	221.806238	190.753364	328.095755	234647.4029	201796.7665	341195.1503
16	17	2	44774.00	220.511553	189.639936	326.363773	241483.2611	207675.6045	351312.4273
16	17	2	44805.00	219.266863	188.569501	324.691796	248280.5338	213521.2591	361377.873
16	17	2	44835.00	218.102565	187.568205	323.123435	254823.6108	219148.3053	371071.576
16	17	2	44866.00	216.936514	186.565402	321.549103	261548.6427	224931.8327	381039.5982
16	17	2	44896.00	215.838856	185.621416	320.064036	268023.8084	230500.4752	390641.5193
16	17	2	44927.00	214.73369	184.670974	318.566009	274680.5528	236225.2754	400517.0656
16	17	2	44958.00	213.659348	183.74704	317.106177	281303.9926	241921.4336	410347.3571
16	17	2	44986.00	212.708227	182.929075	315.812726	287259.8229	247043.4477	419190.1134
16	17	2	45017.00	211.676562	182.041843	314.408752	293821.7963	252686.7448	428936.7847
16	17	2	45047.00	210.697425	181.199785	313.07528	300142.719	258122.7384	438329.0431
16	17	2	45078.00	209.705487	180.346719	311.723411	306643.5892	263713.4867	447992.4688
16	17	2	45108.00	208.763777	179.536849	310.438708	312906.5025	269099.5921	457305.6301
16	17	2	45139.00	207.809714	178.716354	309.135757	319348.6036	274639.7991	466888.8386
16	17	2	45170.00	206.875038	177.912533	307.857656	325761.7298	280155.0876	476432.4259
